#!/bin/bash
gmt gmtset PS_MEDIA letter
gmt gmtset PROJ_LENGTH_UNIT cm
gmt gmtset PS_PAGE_ORIENTATION portrait
psfile=jsa4.1_example_tt1_summary.ps
projection=-JX12/16
region=-R0/180/0/1500
gmt psbasemap $region $projection -Bxa30f10+l'Epicentral Distance (deg)' -Bya200f100+l'Travel Time (s)' -BWeSn+t'Summary Travel Times jsa4.1_example' -K > $psfile
gmt psxy -: -R $projection -Wthick,red -K -O << END >> $psfile
   323.910    25.000
   328.453    25.500
   332.985    26.000
   337.506    26.500
   342.014    27.000
   346.506    27.500
   350.978    28.000
   355.435    28.500
   359.880    29.000
   364.316    29.500
   368.745    30.000
   373.166    30.500
   377.579    31.000
   381.984    31.500
   386.382    32.000
   390.769    32.500
   395.146    33.000
   399.511    33.500
   403.862    34.000
   408.197    34.500
   412.518    35.000
   416.823    35.500
   421.113    36.000
   425.388    36.500
   429.648    37.000
   433.892    37.500
   438.120    38.000
   442.332    38.500
   446.527    39.000
   450.706    39.500
   454.867    40.000
   459.011    40.500
   463.139    41.000
   467.249    41.500
   471.342    42.000
   475.418    42.500
   479.477    43.000
   483.517    43.500
   487.541    44.000
   491.546    44.500
   495.534    45.000
   499.503    45.500
   503.455    46.000
   507.389    46.500
   511.304    47.000
   515.202    47.500
   519.081    48.000
   522.943    48.500
   526.786    49.000
   530.610    49.500
   534.417    50.000
   538.205    50.500
   541.975    51.000
   545.727    51.500
   549.461    52.000
   553.177    52.500
   556.875    53.000
   560.555    53.500
   564.217    54.000
   567.861    54.500
   571.486    55.000
   575.093    55.500
   578.681    56.000
   582.251    56.500
   585.803    57.000
   589.336    57.500
   592.851    58.000
   596.349    58.500
   599.828    59.000
   603.289    59.500
   606.731    60.000
   610.155    60.500
   613.561    61.000
   616.948    61.500
   620.317    62.000
   623.668    62.500
   627.001    63.000
   630.316    63.500
   633.613    64.000
   636.892    64.500
   640.154    65.000
   643.397    65.500
   646.622    66.000
   649.830    66.500
   653.019    67.000
   656.190    67.500
   659.343    68.000
   662.478    68.500
   665.594    69.000
   668.693    69.500
   671.773    70.000
   674.835    70.500
   677.879    71.000
   680.905    71.500
   683.913    72.000
   686.903    72.500
   689.874    73.000
   692.826    73.500
   695.760    74.000
   698.675    74.500
   701.572    75.000
   704.450    75.500
   707.309    76.000
   710.151    76.500
   712.974    77.000
   715.779    77.500
   718.566    78.000
   721.335    78.500
   724.086    79.000
   726.819    79.500
   729.532    80.000
   732.227    80.500
   734.903    81.000
   737.559    81.500
   740.196    82.000
   742.814    82.500
   745.413    83.000
   747.994    83.500
   750.555    84.000
   753.096    84.500
   755.616    85.000
   758.117    85.500
   760.599    86.000
   763.063    86.500
   765.509    87.000
   767.932    87.500
   770.321    88.000
   772.688    88.500
   775.042    89.000
   777.388    89.500
   779.726    90.000
   782.057    90.500
   784.382    91.000
   786.701    91.500
   789.016    92.000
   791.326    92.500
   793.634    93.000
   795.938    93.500
   798.238    94.000
   800.533    94.500
   802.824    95.000
   805.108    95.500
   807.386    96.000
   809.658    96.500
   811.923    97.000
   814.182    97.500
   816.433    98.000
   818.677    98.500
   820.914    99.000
   823.143    99.500
END
gmt psxy -: -R $projection -Wthick,red -K -O << END >> $psfile
  1122.159   115.500
  1123.121   116.000
  1124.084   116.500
  1125.046   117.000
  1126.008   117.500
  1126.970   118.000
  1127.931   118.500
  1128.893   119.000
  1129.854   119.500
  1130.816   120.000
  1131.777   120.500
  1132.738   121.000
  1133.698   121.500
  1134.658   122.000
  1135.618   122.500
  1136.578   123.000
  1137.537   123.500
  1138.496   124.000
  1139.454   124.500
  1140.411   125.000
  1141.369   125.500
  1142.325   126.000
  1143.281   126.500
  1144.236   127.000
  1145.191   127.500
  1146.144   128.000
  1147.097   128.500
  1148.049   129.000
  1149.000   129.500
  1149.950   130.000
  1150.898   130.500
  1151.846   131.000
  1152.792   131.500
  1153.737   132.000
  1154.681   132.500
  1155.623   133.000
  1156.564   133.500
  1157.503   134.000
  1158.440   134.500
  1159.375   135.000
  1160.308   135.500
  1161.240   136.000
  1162.168   136.500
  1163.095   137.000
  1164.019   137.500
  1164.940   138.000
  1165.859   138.500
  1166.774   139.000
  1167.687   139.500
  1168.597   140.000
  1169.503   140.500
  1170.405   141.000
  1171.304   141.500
  1172.199   142.000
  1173.089   142.500
  1173.975   143.000
  1174.856   143.500
  1175.733   144.000
  1176.604   144.500
  1177.469   145.000
  1178.329   145.500
  1179.183   146.000
  1180.031   146.500
  1180.872   147.000
  1181.706   147.500
  1182.533   148.000
  1183.353   148.500
  1184.164   149.000
  1184.967   149.500
  1185.760   150.000
  1186.543   150.500
  1187.317   151.000
  1188.080   151.500
  1188.834   152.000
  1189.577   152.500
  1190.311   153.000
  1191.034   153.500
  1191.746   154.000
  1192.448   154.500
  1193.138   155.000
  1193.817   155.500
  1194.484   156.000
  1195.140   156.500
  1195.783   157.000
  1196.415   157.500
  1197.034   158.000
  1197.641   158.500
  1198.235   159.000
  1198.816   159.500
  1199.385   160.000
  1199.940   160.500
  1200.483   161.000
  1201.012   161.500
  1201.528   162.000
  1202.031   162.500
  1202.521   163.000
  1202.997   163.500
  1203.459   164.000
  1203.907   164.500
  1204.342   165.000
  1204.763   165.500
  1205.170   166.000
  1205.563   166.500
  1205.942   167.000
  1206.307   167.500
  1206.658   168.000
  1206.995   168.500
  1207.318   169.000
  1207.627   169.500
  1207.921   170.000
  1208.202   170.500
  1208.468   171.000
  1208.719   171.500
  1208.957   172.000
  1209.180   172.500
  1209.389   173.000
  1209.584   173.500
  1209.764   174.000
  1209.930   174.500
  1210.081   175.000
  1210.219   175.500
  1210.341   176.000
  1210.449   176.500
  1210.543   177.000
  1210.623   177.500
  1210.688   178.000
  1210.738   178.500
  1210.774   179.000
  1210.796   179.500
  1210.803   180.000
END
gmt psxy -: -R $projection -Wthick,red -K -O << END >> $psfile
   993.102     0.500
   993.110     1.000
   993.124     1.500
   993.144     2.000
   993.169     2.500
   993.200     3.000
   993.236     3.500
   993.278     4.000
   993.326     4.500
   993.379     5.000
   993.437     5.500
   993.502     6.000
   993.572     6.500
   993.647     7.000
   993.728     7.500
   993.815     8.000
   993.907     8.500
   994.005     9.000
   994.108     9.500
   994.217    10.000
   994.331    10.500
   994.451    11.000
   994.577    11.500
   994.708    12.000
   994.845    12.500
   994.987    13.000
   995.135    13.500
   995.288    14.000
   995.446    14.500
   995.611    15.000
   995.781    15.500
   995.956    16.000
   996.137    16.500
   996.323    17.000
   996.515    17.500
   996.712    18.000
   996.914    18.500
   997.123    19.000
   997.336    19.500
   997.555    20.000
   997.780    20.500
   998.010    21.000
   998.245    21.500
   998.486    22.000
   998.732    22.500
   998.984    23.000
   999.241    23.500
   999.503    24.000
   999.771    24.500
  1000.044    25.000
  1000.322    25.500
  1000.606    26.000
  1000.895    26.500
  1001.190    27.000
  1001.490    27.500
  1001.795    28.000
  1002.105    28.500
  1002.421    29.000
  1002.742    29.500
  1003.068    30.000
  1003.399    30.500
  1003.736    31.000
  1004.078    31.500
  1004.425    32.000
  1004.778    32.500
  1005.135    33.000
  1005.498    33.500
  1005.866    34.000
  1006.239    34.500
  1006.617    35.000
  1007.001    35.500
  1007.389    36.000
  1007.783    36.500
  1008.182    37.000
  1008.585    37.500
  1008.994    38.000
  1009.408    38.500
  1009.827    39.000
  1010.251    39.500
  1010.680    40.000
  1011.114    40.500
  1011.553    41.000
  1011.997    41.500
  1012.446    42.000
  1012.900    42.500
  1013.358    43.000
  1013.822    43.500
  1014.291    44.000
  1014.764    44.500
  1015.242    45.000
  1015.726    45.500
  1016.214    46.000
  1016.706    46.500
  1017.204    47.000
  1017.706    47.500
  1018.214    48.000
  1018.726    48.500
  1019.242    49.000
  1019.764    49.500
  1020.290    50.000
  1020.820    50.500
  1021.356    51.000
  1021.896    51.500
  1022.441    52.000
  1022.990    52.500
  1023.544    53.000
  1024.102    53.500
  1024.666    54.000
  1025.233    54.500
  1025.805    55.000
  1026.382    55.500
  1026.963    56.000
  1027.549    56.500
  1028.139    57.000
  1028.733    57.500
  1029.332    58.000
  1029.935    58.500
  1030.543    59.000
  1031.155    59.500
  1031.772    60.000
  1032.392    60.500
  1033.017    61.000
  1033.647    61.500
  1034.280    62.000
  1034.918    62.500
  1035.560    63.000
  1036.206    63.500
  1036.857    64.000
  1037.511    64.500
  1038.170    65.000
  1038.833    65.500
  1039.500    66.000
  1040.171    66.500
  1040.846    67.000
  1041.525    67.500
  1042.208    68.000
  1042.896    68.500
  1043.587    69.000
  1044.282    69.500
  1044.981    70.000
  1045.684    70.500
  1046.391    71.000
  1047.101    71.500
  1047.816    72.000
  1048.534    72.500
  1049.256    73.000
  1049.982    73.500
  1050.712    74.000
  1051.446    74.500
  1052.183    75.000
  1052.924    75.500
  1053.668    76.000
  1054.417    76.500
  1055.169    77.000
  1055.924    77.500
  1056.683    78.000
  1057.446    78.500
  1058.212    79.000
  1058.982    79.500
  1059.755    80.000
  1060.532    80.500
  1061.312    81.000
  1062.096    81.500
  1062.883    82.000
  1063.673    82.500
  1064.467    83.000
  1065.264    83.500
  1066.064    84.000
  1066.868    84.500
  1067.675    85.000
  1068.485    85.500
  1069.299    86.000
  1070.115    86.500
  1070.935    87.000
  1071.758    87.500
  1072.585    88.000
  1073.414    88.500
  1074.246    89.000
  1075.082    89.500
  1075.920    90.000
  1076.762    90.500
  1077.606    91.000
  1078.454    91.500
  1079.304    92.000
  1080.157    92.500
  1081.014    93.000
  1081.873    93.500
  1082.735    94.000
  1083.599    94.500
  1084.467    95.000
  1085.337    95.500
  1086.211    96.000
  1087.086    96.500
  1087.965    97.000
  1088.846    97.500
  1089.730    98.000
  1090.617    98.500
  1091.506    99.000
  1092.398    99.500
  1093.292   100.000
  1094.189   100.500
  1095.088   101.000
  1095.990   101.500
  1096.895   102.000
  1097.802   102.500
  1098.711   103.000
  1099.622   103.500
  1100.536   104.000
  1101.453   104.500
  1102.372   105.000
  1103.293   105.500
  1104.216   106.000
  1105.141   106.500
  1106.069   107.000
  1106.999   107.500
  1107.932   108.000
  1108.866   108.500
  1109.802   109.000
  1110.741   109.500
  1111.682   110.000
  1112.624   110.500
  1113.569   111.000
  1114.516   111.500
  1115.464   112.000
  1116.415   112.500
  1117.368   113.000
  1118.322   113.500
  1119.279   114.000
  1120.237   114.500
  1121.198   115.000
  1122.159   115.500
  1123.123   116.000
  1124.089   116.500
  1125.056   117.000
  1126.025   117.500
  1126.996   118.000
  1127.969   118.500
  1128.943   119.000
  1129.918   119.500
  1130.896   120.000
  1131.875   120.500
  1132.855   121.000
  1133.837   121.500
  1134.821   122.000
  1135.806   122.500
  1136.792   123.000
  1137.780   123.500
  1138.769   124.000
  1139.760   124.500
  1140.752   125.000
  1141.746   125.500
  1142.740   126.000
  1143.736   126.500
  1144.734   127.000
  1145.732   127.500
  1146.732   128.000
  1147.733   128.500
  1148.735   129.000
  1149.738   129.500
  1150.743   130.000
  1151.749   130.500
  1152.755   131.000
  1153.763   131.500
  1154.772   132.000
  1155.781   132.500
  1156.792   133.000
  1157.804   133.500
  1158.817   134.000
  1159.830   134.500
  1160.845   135.000
  1161.860   135.500
  1162.876   136.000
  1163.894   136.500
  1164.911   137.000
  1165.930   137.500
  1166.950   138.000
  1167.970   138.500
  1168.991   139.000
  1170.013   139.500
  1171.035   140.000
  1172.058   140.500
  1173.081   141.000
  1174.106   141.500
  1175.130   142.000
  1176.156   142.500
  1177.182   143.000
  1178.208   143.500
  1179.235   144.000
  1180.262   144.500
  1181.290   145.000
  1182.319   145.500
  1183.347   146.000
  1184.377   146.500
  1185.406   147.000
  1186.436   147.500
  1187.466   148.000
  1188.497   148.500
  1189.527   149.000
  1190.558   149.500
  1191.590   150.000
  1192.621   150.500
  1193.653   151.000
  1194.685   151.500
  1195.717   152.000
  1196.749   152.500
  1197.781   153.000
  1198.814   153.500
  1199.846   154.000
  1200.879   154.500
  1201.911   155.000
END
gmt psxy -: -R $projection -Wthick,red -K -O << END >> $psfile
  1176.779   145.000
  1178.602   145.500
  1180.482   146.000
  1182.399   146.500
  1184.344   147.000
  1186.312   147.500
  1188.300   148.000
  1190.306   148.500
  1192.327   149.000
  1194.362   149.500
  1196.410   150.000
  1198.470   150.500
  1200.539   151.000
  1202.619   151.500
  1204.708   152.000
  1206.805   152.500
  1208.909   153.000
  1211.021   153.500
  1213.141   154.000
  1215.266   154.500
  1217.398   155.000
  1219.535   155.500
  1221.678   156.000
  1223.826   156.500
  1225.978   157.000
  1228.135   157.500
  1230.296   158.000
  1232.461   158.500
  1234.631   159.000
  1236.804   159.500
  1238.980   160.000
  1241.159   160.500
  1243.342   161.000
  1245.527   161.500
  1247.716   162.000
  1249.906   162.500
  1252.099   163.000
  1254.295   163.500
  1256.492   164.000
  1258.692   164.500
  1260.893   165.000
  1263.097   165.500
  1265.302   166.000
  1267.509   166.500
  1269.717   167.000
  1271.926   167.500
  1274.137   168.000
  1276.349   168.500
  1278.563   169.000
  1280.777   169.500
  1282.993   170.000
  1285.209   170.500
  1287.427   171.000
  1289.644   171.500
  1291.863   172.000
  1294.083   172.500
  1296.302   173.000
  1298.523   173.500
  1300.744   174.000
  1302.965   174.500
  1305.187   175.000
  1307.409   175.500
  1309.632   176.000
  1311.854   176.500
  1314.077   177.000
  1316.300   177.500
  1318.522   178.000
END
gmt psxy -: -R $projection -Wthick,red -K -O << END >> $psfile
  1176.777   145.000
  1178.403   145.500
  1179.950   146.000
  1181.440   146.500
  1182.880   147.000
  1184.275   147.500
  1185.626   148.000
  1186.939   148.500
  1188.216   149.000
  1189.465   149.500
  1190.688   150.000
  1191.889   150.500
  1193.069   151.000
  1194.229   151.500
  1195.371   152.000
  1196.496   152.500
  1197.605   153.000
  1198.700   153.500
  1199.781   154.000
  1200.849   154.500
  1201.904   155.000
END
gmt psxy -: -R $projection -Wthick,red -K -O << END >> $psfile
   509.977     0.500
   510.013     1.000
   510.073     1.500
   510.157     2.000
   510.265     2.500
   510.397     3.000
   510.553     3.500
   510.733     4.000
   510.937     4.500
   511.164     5.000
   511.415     5.500
   511.690     6.000
   511.989     6.500
   512.311     7.000
   512.657     7.500
   513.027     8.000
   513.420     8.500
   513.836     9.000
   514.275     9.500
   514.738    10.000
   515.224    10.500
   515.732    11.000
   516.264    11.500
   516.818    12.000
   517.396    12.500
   517.995    13.000
   518.618    13.500
   519.262    14.000
   519.929    14.500
   520.618    15.000
   521.330    15.500
   522.063    16.000
   522.817    16.500
   523.594    17.000
   524.392    17.500
   525.211    18.000
   526.051    18.500
   526.913    19.000
   527.795    19.500
   528.698    20.000
   529.622    20.500
   530.567    21.000
   531.531    21.500
   532.516    22.000
   533.521    22.500
   534.545    23.000
   535.589    23.500
   536.653    24.000
   537.736    24.500
   538.838    25.000
   539.959    25.500
   541.099    26.000
   542.258    26.500
   543.435    27.000
   544.630    27.500
   545.843    28.000
   547.074    28.500
   548.323    29.000
   549.590    29.500
   550.874    30.000
   552.175    30.500
   553.493    31.000
   554.828    31.500
   556.179    32.000
   557.547    32.500
   558.931    33.000
   560.332    33.500
   561.748    34.000
   563.180    34.500
   564.627    35.000
   566.090    35.500
   567.567    36.000
   569.060    36.500
   570.568    37.000
   572.090    37.500
   573.626    38.000
   575.177    38.500
   576.742    39.000
   578.320    39.500
   579.912    40.000
   581.518    40.500
   583.137    41.000
   584.769    41.500
   586.414    42.000
   588.072    42.500
   589.742    43.000
   591.424    43.500
   593.119    44.000
   594.826    44.500
   596.545    45.000
   598.275    45.500
   600.017    46.000
   601.770    46.500
   603.534    47.000
   605.310    47.500
   607.096    48.000
   608.892    48.500
   610.700    49.000
   612.517    49.500
   614.345    50.000
   616.182    50.500
   618.029    51.000
   619.886    51.500
   621.753    52.000
   623.628    52.500
   625.513    53.000
   627.407    53.500
   629.310    54.000
   631.221    54.500
   633.141    55.000
   635.069    55.500
   637.006    56.000
   638.950    56.500
   640.902    57.000
   642.863    57.500
   644.830    58.000
   646.806    58.500
   648.788    59.000
   650.778    59.500
   652.775    60.000
   654.779    60.500
   656.789    61.000
   658.806    61.500
   660.830    62.000
   662.860    62.500
   664.896    63.000
   666.939    63.500
   668.987    64.000
   671.041    64.500
   673.101    65.000
   675.166    65.500
   677.237    66.000
   679.314    66.500
   681.395    67.000
   683.482    67.500
   685.573    68.000
   687.670    68.500
   689.771    69.000
   691.876    69.500
   693.987    70.000
   696.101    70.500
   698.220    71.000
   700.344    71.500
   702.471    72.000
   704.602    72.500
   706.737    73.000
   708.876    73.500
   711.018    74.000
   713.164    74.500
   715.314    75.000
   717.467    75.500
   719.623    76.000
   721.782    76.500
   723.945    77.000
   726.110    77.500
   728.278    78.000
   730.449    78.500
   732.623    79.000
   734.799    79.500
   736.978    80.000
   739.160    80.500
   741.343    81.000
   743.529    81.500
   745.717    82.000
   747.908    82.500
   750.100    83.000
   752.294    83.500
   754.490    84.000
   756.688    84.500
   758.888    85.000
   761.090    85.500
   763.293    86.000
   765.497    86.500
   767.703    87.000
   769.910    87.500
   772.119    88.000
   774.329    88.500
   776.540    89.000
   778.752    89.500
   780.965    90.000
   783.180    90.500
   785.395    91.000
   787.611    91.500
   789.828    92.000
   792.045    92.500
   794.264    93.000
   796.483    93.500
   798.702    94.000
   800.923    94.500
   803.143    95.000
   805.364    95.500
   807.586    96.000
   809.808    96.500
   812.030    97.000
   814.252    97.500
   816.474    98.000
   818.697    98.500
   820.920    99.000
   823.143    99.500
END
gmt psxy -: -R $projection -Wthick,red -K -O << END >> $psfile
   419.740    28.500
   425.297    29.000
   430.854    29.500
   436.410    30.000
   441.965    30.500
   447.519    31.000
   453.071    31.500
   458.621    32.000
   464.168    32.500
   469.712    33.000
   475.254    33.500
   480.791    34.000
   486.325    34.500
   491.853    35.000
   497.377    35.500
   502.895    36.000
   508.408    36.500
   513.913    37.000
   519.411    37.500
   524.902    38.000
   530.384    38.500
   535.858    39.000
   541.322    39.500
   546.776    40.000
   552.220    40.500
   557.652    41.000
   563.073    41.500
   568.481    42.000
   573.877    42.500
   579.259    43.000
   584.627    43.500
   589.981    44.000
   595.320    44.500
   600.644    45.000
   605.953    45.500
   611.244    46.000
